time	temperature	resistance
0	35.6875	6288.867
1	35.75	6282.3936
2	35.875	6179.4872
3	36.0	6211.505
4	36.0625	6185.879
5	36.125	6134.872
6	36.25	6173.096
7	36.375	6096.8268
8	36.4375	6147.5932
9	36.5625	6021.27
10	36.625	6046.376
11	36.75	6027.538
12	36.8125	6002.493
13	36.9375	6002.493
14	37.0	5983.37
15	37.0625	5964.677
16	37.1875	5946.0312
17	37.25	5958.457
18	37.375	5915.049
19	37.4375	5908.8696
20	37.5625	5847.3184
21	37.625	5816.7228
22	37.75	5890.3536
23	37.8125	5822.834
24	37.9375	5792.3276
26	38.0	5743.7668
27	38.125	5761.9424
28	38.1875	5743.7668
29	38.25	5774.083
30	38.375	5695.504
31	38.4375	5629.6216
32	38.5625	5701.5196
33	38.625	5635.5892
34	38.6875	5623.66
35	38.875	5635.5892
36	38.9375	5558.381
37	39.0	5546.5676
38	39.125	5558.381
39	39.1875	5528.8856
40	39.25	5446.8964
41	39.3125	5441.0712
42	39.4375	5528.8856
44	39.5	5400.433
45	39.5625	5388.863
46	39.625	5446.8964
47	39.6875	5417.8228
48	39.8125	5406.2256
49	39.8125	5308.338
50	39.9375	5388.863
51	40.0625	5308.338
52	40.125	5394.6424
53	40.1875	5262.7048
54	40.25	5279.7868
55	40.3125	5308.338
56	40.375	5217.34
57	40.4375	5262.7048
58	40.5	5279.7868
59	40.5625	5206.0424
61	40.625	5206.0424
62	40.625	5133.01
63	40.75	5172.2476
64	40.8125	5144.1976
65	40.8125	5099.533
66	40.875	5133.01
67	40.9375	5155.4052
68	41.0625	5138.5984
69	41.125	5110.6776
70	41.125	5049.605
71	41.1875	5066.2076
72	41.25	5082.8556
73	41.3125	5066.2076
74	41.375	5044.0748
75	41.375	5038.551
77	41.4375	5055.136
78	41.5	4994.5084
79	41.5625	4994.5084
80	41.5625	4994.5084
81	41.625	4967.1144
82	41.6875	4972.584
83	41.75	4934.3716
84	41.75	4896.3508
85	41.8125	4978.0596
86	41.875	4934.3716
87	41.9375	4912.618
88	41.9375	4885.5244
89	42.0	4890.9364
90	42.0	4826.254
91	42.0625	4799.4672
93	42.125	4794.124
94	42.125	4794.124
95	42.1875	4794.124
96	42.25	4794.124
97	42.25	4794.124
98	42.3125	4799.4672
99	42.3125	4794.124
100	42.4375	4746.1856
101	42.4375	4751.4976
102	42.5	4815.528
103	42.5	4810.1716
104	42.5	4688.0196
105	42.5625	4767.452
106	42.5625	4719.69
107	42.625	4762.131
109	42.625	4719.69
110	42.6875	4693.289
111	42.75	4709.115
112	42.75	4724.982
113	42.75	4666.9824
114	42.8125	4666.9824
115	42.8125	4688.0196
116	42.875	4609.4356
117	42.875	4656.4816
118	42.9375	4635.537
119	42.9375	4666.9824
120	43.0	4661.729
121	43.0	4625.085
122	43.0625	4614.6476
123	43.0625	4614.6476
125	43.0625	4619.865
126	43.125	4635.537
127	43.125	4578.2384
128	43.125	4604.2248
129	43.1875	4625.085
130	43.1875	4578.2384
131	43.25	4567.867
132	43.25	4552.3376
133	43.3125	4547.17
134	43.3125	4526.212
135	43.3125	4536.523
136	43.3125	4526.212
137	43.375	4536.523
139	43.375	4474.8756
140	43.375	4521.061
141	43.4375	4521.061
142	43.4375	4536.523
143	43.4375	4449.3432
144	43.5	4485.1124
145	43.5	4485.1124
146	43.5	4459.547
147	43.5625	4500.4984
148	43.5625	4449.3432
149	43.5625	4479.995
150	43.5625	4479.995
151	43.625	4413.75
152	43.625	4459.547
154	43.625	4464.6532
155	43.625	4439.158
156	43.625	4485.1124
157	43.6875	4444.25
158	43.6875	4373.2876
159	43.6875	4403.613
160	43.6875	4449.3432
161	43.75	4403.613
162	43.75	4398.551
163	43.75	4398.551
164	43.75	4388.4364
165	43.8125	4398.551
166	43.8125	4373.2876
168	43.8125	4403.613
169	43.8125	4368.2436
170	43.8125	4378.3324
171	43.875	4373.2876
172	43.875	4313.0148
173	43.875	4358.17
174	43.875	4368.2436
175	43.875	4318.019
176	43.9375	4338.067
177	43.9375	4353.1396
178	43.9375	4318.019
179	43.9375	4363.206
180	43.9375	4368.2436
182	43.9375	4378.3324
183	43.9375	4353.1396
184	44.0	4338.067
185	44.0	4298.0232
186	44.0	4353.1396
187	44.0	4298.0232
188	44.0	4313.0148
189	44.0	4323.0252
190	44.0	4338.067
191	44.0625	4293.038
192	44.0	4313.0148
193	44.0625	4288.0504
194	44.0625	4318.019
196	44.0625	4303.019
197	44.0625	4323.0252
198	44.0625	4258.2076
199	44.0625	4283.068
200	44.0625	4298.0232
201	44.125	4218.612
202	44.125	4258.2076
203	44.125	4253.248
204	44.125	4293.038
205	44.125	4268.14
206	44.125	4298.0232
207	44.125	4283.068
208	44.125	4303.019
210	44.125	4298.0232
211	44.125	4233.435
212	44.125	4268.14
213	44.125	4218.612
214	44.125	4258.2076
215	44.1875	4258.2076
216	44.1875	4278.0876
217	44.1875	4273.113
218	44.1875	4258.2076
219	44.1875	4248.286
220	44.1875	4248.286
221	44.1875	4253.248
222	44.1875	4293.038
223	44.1875	4253.248
225	44.1875	4253.248
226	44.1875	4253.248
227	44.25	4218.612
228	44.25	4179.233
229	44.25	4243.334
230	44.25	4233.435
231	44.25	4228.4884
232	44.25	4198.8964
233	44.25	4233.435
234	44.25	4228.4884
235	44.25	4213.678
236	44.25	4238.384
237	44.25	4238.384
238	44.25	4258.2076
239	44.25	4248.286
240	44.25	4198.8964
242	44.25	4208.7468
243	44.25	4218.612
244	44.25	4258.2076
245	44.25	4218.612
246	44.25	4189.057
247	44.25	4233.435
248	44.25	4208.7468
249	44.25	4218.612
250	44.25	4213.678
251	44.3125	4154.7332
252	44.25	4198.8964
253	44.25	4174.3256
254	44.25	4203.8204
255	44.25	4154.7332
256	44.25	4193.9736
257	44.25	4149.8432
258	44.3125	4135.1944
260	44.25	4208.7468
261	44.25	4198.8964
262	44.25	4179.233
263	44.25	4203.8204
264	44.25	4203.8204
265	44.25	4203.8204
266	44.3125	4218.612
267	44.3125	4174.3256
268	44.25	4174.3256
269	44.25	4213.678
270	44.25	4193.9736
271	44.25	4140.075
272	44.3125	4169.424
273	44.25	4179.233
274	44.25	4203.8204
275	44.25	4198.8964
277	44.25	4174.3256
278	44.25	4223.5476
279	44.25	4140.075
280	44.25	4193.9736
281	44.25	4203.8204
282	44.25	4198.8964
283	44.25	4223.5476
284	44.25	4198.8964
285	44.25	4198.8964
286	44.25	4125.4452
287	44.25	4179.233
288	44.25	4203.8204
289	44.25	4179.233
290	44.25	4169.424
291	44.25	4169.424
293	44.25	4184.146
294	44.25	4208.7468
295	44.25	4233.435
296	44.25	4203.8204
297	44.25	4208.7468
298	44.25	4140.075
299	44.25	4179.233
300	44.25	4193.9736
301	44.25	4174.3256
302	44.25	4130.319
303	44.25	4169.424
304	44.25	4120.5736
305	44.25	4189.057
306	44.1875	4164.524
307	44.1875	4189.057
309	44.1875	4125.4452
310	44.1875	4213.678
311	44.1875	4169.424
312	44.1875	4179.233
313	44.1875	4179.233
314	44.1875	4174.3256
315	44.1875	4169.424
316	44.1875	4193.9736
317	44.1875	4179.233
318	44.1875	4174.3256
319	44.1875	4208.7468
320	44.1875	4198.8964
321	44.1875	4208.7468
322	44.125	4169.424
323	44.125	4223.5476
325	44.125	4169.424
326	44.125	4149.8432
327	44.125	4154.7332
328	44.125	4198.8964
329	44.125	4169.424
330	44.125	4213.678
331	44.125	4115.7076
332	44.125	4174.3256
333	44.125	4159.626
334	44.125	4149.8432
335	44.125	4203.8204
336	44.125	4203.8204
337	44.125	4149.8432
338	44.125	4189.057
339	44.125	4149.8432
341	44.125	4198.8964
342	44.125	4179.233
343	44.0625	4179.233
344	44.0625	4169.424
345	44.0625	4154.7332
346	44.0625	4228.4884
347	44.0625	4193.9736
348	44.0625	4208.7468
349	44.0625	4208.7468
350	44.0625	4135.1944
351	44.0625	4179.233
352	44.0625	4193.9736
353	44.0625	4193.9736
354	44.0625	4174.3256
356	44.0625	4189.057
357	44.0625	4203.8204
358	44.0625	4233.435
359	44.0	4189.057
360	44.0	4159.626
361	44.0	4193.9736
362	44.0	4169.424
363	44.0	4179.233
364	44.0	4164.524
365	44.0	4198.8964
366	44.0	4144.9584
367	44.0	4179.233
368	44.0	4179.233
370	44.0	4193.9736
371	44.0	4140.075
372	44.0	4198.8964
373	44.0	4179.233
374	43.9375	4198.8964
375	44.0	4179.233
376	43.9375	4174.3256
377	43.9375	4213.678
378	43.9375	4140.075
379	43.9375	4189.057
380	43.9375	4140.075
381	43.9375	4135.1944
382	43.9375	4179.233
384	43.9375	4243.334
385	43.9375	4208.7468
386	43.9375	4179.233
387	43.875	4193.9736
388	43.875	4233.435
389	43.9375	4203.8204
390	43.875	4218.612
391	43.875	4179.233
392	43.875	4193.9736
393	43.875	4184.146
394	43.875	4223.5476
395	43.875	4198.8964
396	43.875	4198.8964
397	43.875	4228.4884
399	43.875	4203.8204
400	43.875	4223.5476
401	43.8125	4174.3256
402	43.8125	4253.248
403	43.8125	4218.612
404	43.8125	4218.612
405	43.8125	4208.7468
406	43.8125	4238.384
407	43.8125	4179.233
408	43.8125	4174.3256
409	43.8125	4218.612
410	43.8125	4218.612
411	43.8125	4228.4884
413	43.8125	4203.8204
414	43.8125	4213.678
415	43.8125	4218.612
416	43.75	4223.5476
417	43.75	4258.2076
418	43.75	4253.248
419	43.75	4268.14
420	43.75	4228.4884
421	43.75	4238.384
422	43.75	4218.612
423	43.75	4233.435
424	43.75	4238.384
425	43.75	4213.678
427	43.75	4233.435
428	43.75	4258.2076
429	43.6875	4223.5476
430	43.6875	4283.068
431	43.6875	4273.113
432	43.6875	4198.8964
433	43.6875	4248.286
434	43.6875	4258.2076
435	43.6875	4218.612
436	43.625	4218.612
437	43.625	4193.9736
438	43.625	4288.0504
439	43.625	4243.334
440	43.625	4233.435
442	43.625	4248.286
443	43.625	4283.068
444	43.625	4258.2076
445	43.625	4253.248
446	43.625	4268.14
447	43.625	4258.2076
448	43.625	4288.0504
449	43.625	4253.248
450	43.5625	4179.233
451	43.5625	4218.612
452	43.5625	4243.334
453	43.5625	4273.113
454	43.5625	4243.334
455	43.5625	4278.0876
456	43.5625	4268.14
457	43.5625	4213.678
458	43.5625	4238.384
460	43.5625	4258.2076
461	43.5	4248.286
462	43.5	4253.248
463	43.5	4273.113
464	43.5	4243.334
465	43.5	4258.2076
466	43.5	4258.2076
467	43.5	4298.0232
468	43.5	4298.0232
469	43.5	4293.038
470	43.5	4293.038
471	43.5	4293.038
472	43.5	4313.0148
473	43.5	4248.286
474	43.4375	4258.2076
475	43.4375	4233.435
477	43.4375	4258.2076
478	43.4375	4273.113
479	43.4375	4218.612
480	43.4375	4328.033
481	43.4375	4268.14
482	43.4375	4328.033
483	43.4375	4298.0232
484	43.4375	4298.0232
485	43.375	4218.612
486	43.375	4283.068
487	43.375	4283.068
488	43.375	4233.435
489	43.375	4283.068
490	43.375	4238.384
491	43.375	4298.0232
492	43.375	4283.068
494	43.375	4303.019
495	43.375	4233.435
496	43.3125	4323.0252
497	43.3125	4288.0504
498	43.3125	4283.068
499	43.3125	4288.0504
500	43.3125	4298.0232
501	43.3125	4328.033
502	43.3125	4308.016
503	43.3125	4248.286
504	43.3125	4303.019
505	43.3125	4338.067
506	43.3125	4313.0148
507	43.3125	4298.0232
508	43.3125	4333.0512
509	43.25	4318.019
511	43.25	4303.019
512	43.25	4348.111
513	43.25	4333.0512
514	43.25	4333.0512
515	43.25	4333.0512
516	43.25	4358.17
517	43.25	4328.033
518	43.25	4273.113
519	43.25	4358.17
520	43.25	4333.0512
521	43.1875	4273.113
522	43.1875	4328.033
523	43.1875	4258.2076
525	43.1875	4258.2076
526	43.1875	4258.2076
527	43.1875	4328.033
528	43.1875	4318.019
529	43.1875	4328.033
530	43.125	4313.0148
531	43.125	4378.3324
532	43.125	4333.0512
533	43.125	4323.0252
534	43.125	4358.17
535	43.125	4378.3324
536	43.125	4338.067
537	43.125	4363.206
538	43.125	4333.0512
539	43.125	4348.111
541	43.0625	4333.0512
542	43.0625	4368.2436
543	43.0625	4338.067
544	43.0625	4363.206
545	43.0625	4358.17
546	43.0625	4358.17
547	43.0625	4368.2436
548	43.0625	4338.067
549	43.0625	4368.2436
550	43.0625	4368.2436
551	43.0625	4373.2876
552	43.0	4363.206
553	43.0	4378.3324
554	43.0	4373.2876
555	43.0	4378.3324
557	43.0	4328.033
558	43.0	4358.17
559	43.0	4378.3324
560	43.0	4353.1396
561	43.0	4378.3324
562	43.0	4393.4908
563	43.0	4393.4908
564	42.9375	4348.111
565	42.9375	4373.2876
566	42.9375	4403.613
567	42.9375	4388.4364
568	42.9375	4378.3324
569	42.9375	4393.4908
570	42.9375	4398.551
572	42.9375	4368.2436
573	42.9375	4368.2436
574	42.9375	4408.6808
575	42.875	4368.2436
576	42.875	4398.551
577	42.875	4358.17
578	42.875	4353.1396
579	42.875	4368.2436
580	42.875	4388.4364
581	42.875	4428.9844
582	42.875	4368.2436
583	42.875	4403.613
584	42.8125	4373.2876
585	42.8125	4408.6808
587	42.8125	4383.384
588	42.8125	4338.067
589	42.8125	4428.9844
590	42.8125	4388.4364
591	42.8125	4378.3324
592	42.8125	4398.551
593	42.8125	4373.2876
594	42.8125	4403.613
595	42.8125	4353.1396
596	42.8125	4418.8248
597	42.75	4393.4908
598	42.75	4403.613
599	42.75	4363.206
601	42.75	4413.75
602	42.75	4378.3324
603	42.75	4393.4908
604	42.75	4353.1396
605	42.75	4403.613
606	42.75	4398.551
607	42.75	4444.25
608	42.6875	4388.4364
609	42.6875	4418.8248
610	42.6875	4428.9844
611	42.6875	4408.6808
612	42.6875	4363.206
614	42.6875	4413.75
615	42.6875	4439.158
616	42.625	4403.613
617	42.625	4459.547
618	42.625	4449.3432
619	42.625	4418.8248
620	42.625	4454.442
621	42.625	4459.547
622	42.625	4418.8248
623	42.625	4388.4364
624	42.625	4459.547
625	42.625	4454.442
626	42.625	4490.2392
628	42.5625	4413.75
629	42.625	4418.8248
630	42.5625	4474.8756
631	42.5625	4449.3432
632	42.5625	4485.1124
633	42.5625	4454.442
634	42.5625	4434.0684
635	42.5625	4459.547
636	42.5625	4474.8756
637	42.5625	4444.25
638	42.5625	4393.4908
639	42.5625	4459.547
640	42.5625	4413.75
642	42.5	4474.8756
643	42.5	4418.8248
644	42.5	4510.7724
645	42.5	4469.7616
646	42.5	4444.25
647	42.5	4459.547
648	42.5	4403.613
649	42.5	4444.25
650	42.5	4444.25
651	42.5	4474.8756
652	42.5	4459.547
653	42.5	4490.2392
654	42.4375	4490.2392
655	42.4375	4485.1124
656	42.4375	4510.7724
658	42.4375	4459.547
659	42.4375	4479.995
660	42.4375	4495.368
661	42.4375	4500.4984
662	42.4375	4485.1124
663	42.375	4474.8756
664	42.4375	4490.2392
665	42.4375	4485.1124
666	42.375	4485.1124
667	42.375	4444.25
668	42.375	4495.368
669	42.375	4474.8756
670	42.375	4500.4984
671	42.375	4490.2392
672	42.375	4439.158
673	42.375	4500.4984
674	42.375	4541.683
676	42.375	4541.683
677	42.3125	4439.158
678	42.3125	4510.7724
679	42.3125	4474.8756
680	42.3125	4500.4984
681	42.3125	4500.4984
682	42.3125	4500.4984
683	42.3125	4479.995
684	42.3125	4495.368
685	42.3125	4495.368
686	42.3125	4449.3432
687	42.3125	4500.4984
688	42.25	4490.2392
689	42.25	4490.2392
690	42.25	4500.4984
692	42.25	4521.061
693	42.25	4521.061
694	42.25	4500.4984
695	42.25	4454.442
696	42.25	4567.867
697	42.25	4547.17
698	42.25	4567.867
699	42.1875	4531.3648
700	42.1875	4515.916
701	42.1875	4521.061
702	42.1875	4454.442
703	42.1875	4541.683
704	42.1875	4531.3648
705	42.1875	4547.17
706	42.1875	4521.061
707	42.125	4521.061
708	42.125	4515.916
710	42.125	4510.7724
711	42.125	4526.212
712	42.125	4521.061
713	42.125	4474.8756
714	42.125	4541.683
715	42.125	4526.212
716	42.125	4526.212
717	42.125	4578.2384
718	42.125	4526.212
719	42.0625	4567.867
720	42.0625	4479.995
721	42.0625	4541.683
722	42.0625	4552.3376
723	42.0625	4490.2392
724	42.0625	4490.2392
726	42.0625	4557.511
727	42.0625	4526.212
728	42.0625	4521.061
729	42.0625	4541.683
730	42.0625	4552.3376
731	42.0625	4541.683
732	42.0625	4547.17
733	42.0	4573.05
734	42.0	4531.3648
735	42.0	4552.3376
736	42.0	4557.511
737	42.0	4521.061
738	42.0	4573.05
739	42.0	4573.05
740	42.0	4531.3648
742	42.0	4578.2384
743	42.0	4573.05
744	41.9375	4567.867
745	41.9375	4500.4984
746	41.9375	4573.05
747	41.9375	4567.867
748	41.9375	4604.2248
749	41.9375	4531.3648
750	41.9375	4573.05
751	41.9375	4536.523
752	41.9375	4573.05
753	41.9375	4567.867
754	41.875	4573.05
755	41.875	4526.212
757	41.875	4573.05
758	41.875	4567.867
759	41.875	4609.4356
760	41.875	4593.817
761	41.875	4583.428
762	41.875	4573.05
763	41.8125	4583.428
764	41.8125	4604.2248
765	41.8125	4573.05
766	41.8125	4614.6476
767	41.8125	4573.05
768	41.8125	4614.6476
769	41.8125	4578.2384
770	41.8125	4625.085
771	41.8125	4609.4356
773	41.8125	4619.865
774	41.8125	4578.2384
775	41.75	4609.4356
776	41.75	4593.817
777	41.75	4625.085
778	41.75	4646.004
779	41.75	4609.4356
780	41.75	4614.6476
781	41.75	4614.6476
782	41.75	4635.537
783	41.75	4557.511
784	41.6875	4609.4356
785	41.6875	4599.02
786	41.6875	4604.2248
788	41.6875	4640.7656
789	41.6875	4599.02
790	41.6875	4640.7656
791	41.6875	4625.085
792	41.625	4567.867
793	41.625	4583.428
794	41.625	4604.2248
795	41.625	4635.537
796	41.625	4630.3056
797	41.625	4625.085
798	41.625	4625.085
799	41.625	4619.865
800	41.625	4625.085
801	41.625	4630.3056
803	41.625	4646.004
804	41.5625	4635.537
805	41.5625	4625.085
806	41.5625	4666.9824
807	41.5625	4599.02
808	41.5625	4630.3056
809	41.5625	4635.537
810	41.5625	4666.9824
811	41.5625	4666.9824
812	41.5625	4640.7656
813	41.5625	4640.7656
814	41.5	4635.537
815	41.5	4651.2396
817	41.5	4646.004
818	41.5	4661.729
819	41.5	4619.865
820	41.5	4693.289
821	41.5	4682.751
822	41.5	4656.4816
823	41.5	4682.751
824	41.5	4688.0196
825	41.4375	4698.56
826	41.4375	4640.7656
827	41.4375	4625.085
828	41.4375	4703.837
829	41.4375	4666.9824
831	41.4375	4630.3056
832	41.4375	4656.4816
833	41.4375	4703.837
834	41.4375	4682.751
835	41.4375	4661.729
836	41.4375	4656.4816
837	41.4375	4682.751
838	41.375	4666.9824
839	41.375	4666.9824
840	41.375	4730.275
841	41.375	4698.56
842	41.375	4688.0196
843	41.375	4682.751
845	41.375	4688.0196
846	41.375	4666.9824
847	41.3125	4614.6476
848	41.3125	4640.7656
849	41.3125	4740.879
850	41.3125	4646.004
851	41.3125	4709.115
852	41.3125	4703.837
853	41.3125	4688.0196
854	41.3125	4740.879
855	41.3125	4693.289
856	41.3125	4693.289
858	41.3125	4698.56
859	41.25	4724.982
860	41.25	4756.8116
861	41.25	4666.9824
862	41.25	4724.982
863	41.25	4698.56
864	41.25	4703.837
865	41.25	4703.837
866	41.25	4709.115
867	41.25	4730.275
868	41.1875	4719.69
869	41.1875	4719.69
870	41.1875	4709.115
871	41.1875	4735.5736
872	41.1875	4693.289
874	41.1875	4666.9824
875	41.1875	4682.751
876	41.1875	4724.982
877	41.1875	4746.1856
878	41.125	4719.69
879	41.1875	4730.275
880	41.125	4788.782
881	41.125	4724.982
882	41.125	4740.879
883	41.125	4693.289
884	41.125	4735.5736
885	41.125	4804.8164
886	41.125	4756.8116
887	41.125	4762.131
888	41.125	4730.275
889	41.125	4719.69
890	41.125	4740.879
892	41.0625	4751.4976
893	41.0625	4746.1856
894	41.0625	4783.442
895	41.0625	4783.442
896	41.0625	4693.289
897	41.0625	4762.131
898	41.0625	4794.124
899	41.0625	4740.879
900	41.0625	4772.7792
901	41.0625	4730.275
902	41.0625	4778.1076
903	41.0	4730.275
904	41.0	4772.7792
905	41.0	4772.7792
906	41.0	4762.131
907	41.0	4751.4976
909	41.0	4772.7792
910	41.0	4778.1076
911	41.0	4778.1076
912	41.0	4794.124
913	41.0	4772.7792
914	41.0	4746.1856
915	40.9375	4804.8164
916	40.9375	4767.452
917	40.9375	4767.452
918	40.9375	4724.982
919	40.9375	4751.4976
920	40.9375	4746.1856
921	40.9375	4751.4976
922	40.9375	4783.442
923	40.9375	4794.124
925	40.875	4751.4976
926	40.875	4740.879
927	40.875	4794.124
928	40.875	4778.1076
929	40.875	4778.1076
930	40.875	4815.528
931	40.875	4783.442
932	40.8125	4772.7792
933	40.8125	4783.442
934	40.8125	4815.528
935	40.8125	4804.8164
936	40.8125	4767.452
937	40.8125	4778.1076
938	40.8125	4767.452
939	40.8125	4783.442
941	40.8125	4788.782
942	40.8125	4794.124
943	40.75	4735.5736
944	40.75	4826.254
945	40.75	4810.1716
946	40.75	4820.8852
947	40.75	4788.782
948	40.75	4794.124
949	40.75	4762.131
950	40.75	4810.1716
951	40.75	4804.8164
952	40.6875	4863.9164
953	40.6875	4869.3096
954	40.6875	4810.1716
955	40.6875	4853.1344
957	40.6875	4815.528
958	40.6875	4794.124
959	40.625	4836.9948
960	40.625	4815.528
961	40.625	4836.9948
962	40.625	4831.619
963	40.625	4772.7792
964	40.625	4820.8852
965	40.625	4858.5244
966	40.625	4820.8852
967	40.625	4810.1716
968	40.625	4751.4976
969	40.625	4826.254
970	40.625	4783.442
971	40.5625	4826.254
973	40.5625	4820.8852
974	40.5625	4853.1344
975	40.5625	4907.191
976	40.5625	4863.9164
977	40.5625	4842.3716
978	40.5625	4783.442
979	40.5625	4863.9164
980	40.5625	4847.75
981	40.5	4885.5244
982	40.5	4847.75
983	40.5	4831.619
984	40.5	4847.75
985	40.5	4896.3508
987	40.5	4863.9164
988	40.5	4880.1132
989	40.5	4890.9364
990	40.5	4869.3096
991	40.5	4799.4672
992	40.5	4885.5244
993	40.5	4847.75
994	40.4375	4820.8852
995	40.4375	4858.5244
996	40.4375	4896.3508
997	40.4375	4885.5244
998	40.4375	4912.618
999	40.4375	4869.3096
1000	40.4375	4831.619
1002	40.4375	4815.528
1003	40.4375	4874.713
1004	40.375	4869.3096
1005	40.375	4836.9948
1006	40.375	4896.3508
1007	40.375	4907.191
1008	40.375	4890.9364
1009	40.375	4826.254
1010	40.375	4853.1344
1011	40.375	4923.4852
1012	40.375	4896.3508
1013	40.375	4810.1716
1014	40.375	4901.77
1015	40.3125	4869.3096
1017	40.3125	4858.5244
1018	40.3125	4869.3096
1019	40.3125	4874.713
1020	40.3125	4901.77
1021	40.3125	4831.619
1022	40.3125	4869.3096
1023	40.3125	4869.3096
1024	40.3125	4912.618
1025	40.3125	4918.051
1026	40.25	4880.1132
1027	40.25	4918.051
1028	40.25	4896.3508
1029	40.25	4890.9364
1031	40.25	4923.4852
1032	40.25	4901.77
1033	40.25	4869.3096
1034	40.25	4939.8192
1035	40.25	4939.8192
1036	40.25	4880.1132
1037	40.1875	4923.4852
1038	40.1875	4896.3508
1039	40.1875	4880.1132
1040	40.1875	4923.4852
1041	40.1875	4907.191
1042	40.1875	4912.618
1043	40.1875	4934.3716
1045	40.1875	4912.618
