time	temperature	resistance
0	27.375	9198.211
1	27.5	9090.832
2	27.6875	8993.45
3	27.8125	8958.286
4	28.0	8818.921
5	28.125	8810.279
6	28.25	8750.0
7	28.4375	8707.18
8	28.5625	8521.083
9	28.6875	8579.892
10	28.8125	8462.645
11	28.9375	8412.843
12	29.125	8346.863
13	29.25	8322.247
14	29.375	8281.355
15	29.5	8183.961
16	29.625	8087.60436
17	29.75	8087.60436
18	29.875	7913.5645
19	30.0	7937.101
20	30.125	7897.9128
21	30.25	7882.284
22	30.4375	7789.086
23	30.5	7727.019
24	30.625	7673.47
25	30.8125	7635.4232
26	30.9375	7635.4232
27	31.0	7559.8152
28	31.125	7492.327
29	31.25	7447.617
30	31.375	7395.751
31	31.5	7351.533
32	31.625	7234.7152
34	31.75	7220.21936
35	31.875	7176.8948
36	32.125	7205.754
37	32.25	7140.949
38	32.375	7076.633
39	32.4375	7034.0216
40	32.5625	7005.73636
41	32.6875	6921.4296
42	32.8125	6956.456
43	32.9375	6858.744
44	33.0625	6803.41568
45	33.125	6707.456
46	33.25	6762.159
47	33.375	6748.4492
48	33.4375	6673.448
49	33.625	6538.801
51	33.6875	6605.854
52	33.9375	6512.135
53	34.0	6532.126
54	34.125	6525.4576
55	34.25	6445.8364
56	34.3125	6406.3084
57	34.4375	6380.067
58	34.5	6353.9024
59	34.625	6334.336
60	34.75	6308.323
61	34.8125	6275.92
62	34.9375	6192.277
63	35.0	6211.505
64	35.125	6166.712
65	35.1875	6147.5932
67	35.3125	6090.498
68	35.4375	6077.8668
69	35.5	6071.5576
70	35.6875	6033.8124
71	35.75	6002.493
72	35.875	6002.493
73	35.9375	5977.1304
74	36.0625	5989.6044
75	36.125	5915.049
76	36.1875	5890.3536
77	36.3125	5878.036
78	36.375	5792.3276
79	36.5	5822.834
80	36.5625	5798.418
81	36.625	5792.3276
83	36.6875	5701.5196
84	36.8125	5731.6732
85	36.875	5653.515
86	37.0	5725.631
87	37.125	5701.5196
88	37.1875	5576.13
89	37.25	5653.515
90	37.3125	5534.7732
91	37.4375	5605.8024
92	37.5	5582.052
93	37.5625	5528.8856
94	37.625	5546.5676
95	37.6875	5511.245
96	37.75	5464.394
97	37.8125	5522.999
98	37.875	5435.2524
100	37.9375	5481.927
101	38.0625	5388.863
102	38.1875	5441.0712
103	38.25	5302.62
104	38.3125	5360.0064
105	38.375	5325.522
106	38.4375	5319.791
107	38.5	5302.62
108	38.5625	5228.6568
109	38.625	5308.338
110	38.6875	5222.995
111	38.75	5183.496
112	38.8125	5189.125
113	38.8125	5155.4052
115	38.9375	5194.76
116	38.9375	5166.6276
117	39.0	5133.01
118	39.125	5155.4052
119	39.1875	5116.2516
120	39.25	5144.1976
121	39.3125	5077.303
122	39.3125	5049.605
123	39.375	5093.9728
124	39.4375	5038.551
125	39.5	5071.7524
126	39.5625	5022.005
127	39.5625	5049.605
128	39.625	5005.4948
129	39.6875	5010.9968
131	39.75	4994.5084
132	39.8125	5005.4948
133	39.875	4972.584
134	39.9375	4923.4852
135	40.0	4939.8192
136	40.0	4869.3096
137	40.0625	4918.051
138	40.125	4901.77
139	40.125	4836.9948
140	40.1875	4863.9164
141	40.25	4836.9948
142	40.25	4885.5244
143	40.3125	4826.254
144	40.375	4863.9164
146	40.375	4880.1132
147	40.4375	4836.9948
148	40.5	4815.528
149	40.5625	4820.8852
150	40.5625	4804.8164
151	40.625	4783.442
152	40.625	4783.442
153	40.6875	4751.4976
154	40.75	4735.5736
155	40.75	4735.5736
156	40.8125	4740.879
157	40.8125	4666.9824
158	40.875	4709.115
159	40.875	4661.729
161	40.9375	4735.5736
162	40.9375	4709.115
163	41.0	4709.115
164	41.0625	4682.751
165	41.0625	4666.9824
166	41.125	4682.751
167	41.125	4656.4816
168	41.1875	4666.9824
169	41.1875	4646.004
170	41.25	4656.4816
171	41.25	4609.4356
172	41.3125	4547.17
173	41.3125	4599.02
175	41.375	4552.3376
176	41.375	4583.428
177	41.4375	4640.7656
178	41.4375	4583.428
179	41.5	4604.2248
180	41.5	4541.683
181	41.5	4578.2384
182	41.5625	4547.17
183	41.5625	4541.683
184	41.625	4562.686
185	41.625	4562.686
186	41.625	4541.683
187	41.6875	4531.3648
189	41.6875	4573.05
190	41.75	4464.6532
191	41.75	4510.7724
192	41.8125	4526.212
193	41.8125	4515.916
194	41.875	4510.7724
195	41.875	4500.4984
196	41.875	4500.4984
197	41.875	4490.2392
198	41.9375	4413.75
199	41.9375	4500.4984
200	41.9375	4418.8248
201	42.0	4474.8756
203	42.0	4449.3432
204	42.0	4449.3432
205	42.0625	4393.4908
206	42.0625	4449.3432
207	42.0625	4454.442
208	42.125	4449.3432
209	42.125	4418.8248
210	42.125	4459.547
211	42.125	4449.3432
212	42.1875	4408.6808
213	42.1875	4358.17
214	42.1875	4439.158
215	42.25	4408.6808
217	42.25	4353.1396
218	42.25	4408.6808
219	42.3125	4378.3324
220	42.3125	4378.3324
221	42.3125	4378.3324
222	42.3125	4378.3324
223	42.375	4393.4908
224	42.375	4398.551
225	42.375	4398.551
226	42.375	4363.206
227	42.375	4338.067
228	42.4375	4388.4364
229	42.4375	4358.17
230	42.4375	4338.067
231	42.5	4338.067
233	42.5	4288.0504
234	42.5	4333.0512
235	42.5	4348.111
236	42.5	4328.033
237	42.5	4328.033
238	42.5625	4328.033
239	42.5625	4353.1396
240	42.5625	4353.1396
241	42.5625	4328.033
242	42.5	4333.0512
243	42.375	4368.2436
244	42.25	4368.2436
245	42.0625	4393.4908
246	42.0	4449.3432
247	41.9375	4413.75
248	41.8125	4368.2436
249	41.75	4449.3432
251	41.75	4444.25
252	41.625	4485.1124
253	41.5625	4490.2392
254	41.4375	4500.4984
255	41.375	4536.523
256	41.3125	4474.8756
257	41.25	4541.683
258	41.1875	4485.1124
259	41.125	4557.511
260	41.0	4578.2384
261	40.9375	4583.428
262	40.875	4578.2384
263	40.8125	4661.729
264	40.75	4599.02
265	40.6875	4682.751
266	40.5625	4666.9824
267	40.5	4656.4816
269	40.4375	4661.729
270	40.375	4688.0196
271	40.1875	4724.982
272	40.125	4746.1856
273	40.0625	4730.275
274	40.0	4794.124
275	39.875	4709.115
276	39.8125	4751.4976
277	39.75	4820.8852
278	39.625	4826.254
279	39.5625	4831.619
280	39.5	4836.9948
281	39.4375	4869.3096
282	39.3125	4939.8192
283	39.25	4912.618
285	39.1875	4961.6464
286	39.125	4956.184
287	39.0	4967.1144
288	38.875	4983.541
289	38.75	4961.6464
290	38.6875	5027.5156
291	38.625	4961.6464
292	38.5	4989.019
293	38.4375	5005.4948
294	38.375	5071.7524
295	38.3125	5093.9728
296	38.1875	5116.2516
297	38.125	5138.5984
298	38.0625	5144.1976
299	37.9375	5099.533
300	37.875	5177.8688
302	37.8125	5206.0424
303	37.625	5217.34
304	37.5625	5257.0216
305	37.5	5268.3944
306	37.375	5257.0216
307	37.3125	5319.791
308	37.25	5268.3944
309	37.125	5314.0616
310	37.0	5342.7468
311	36.9375	5337.002
312	36.875	5360.0064
313	36.8125	5354.249
314	36.8125	5406.2256
315	36.8125	5412.0232
317	36.8125	5406.2256
318	36.75	5371.5356
319	36.75	5499.5052
320	36.6875	5481.927
321	36.625	5487.7804
322	36.625	5487.7804
323	36.625	5493.6396
324	36.5625	5458.5556
325	36.5625	5493.6396
326	36.6875	5505.372
327	36.75	5558.381
328	36.75	5441.0712
329	36.8125	5487.7804
330	36.875	5499.5052
332	36.9375	5464.394
333	36.9375	5452.723
334	37.0	5458.5556
335	37.0625	5458.5556
336	37.125	5435.2524
337	37.125	5464.394
338	37.25	5417.8228
339	37.3125	5446.8964
340	37.375	5446.8964
341	37.5	5406.2256
342	37.5625	5371.5356
343	37.6875	5383.079
344	37.8125	5365.7704
345	37.9375	5354.249
346	38.0	5360.0064
348	38.125	5319.791
349	38.25	5308.338
350	38.5	5296.904
351	38.625	5234.3192
352	38.75	5217.34
353	38.875	5222.995
354	39.0	5144.1976
355	39.1875	5144.1976
356	39.3125	5149.799
357	39.4375	5138.5984
358	39.5625	5044.0748
359	39.6875	5093.9728
360	39.8125	5033.032
361	39.9375	5044.0748
363	40.0625	5022.005
364	40.1875	4983.541
365	40.4375	4999.998
366	40.5625	4967.1144
367	40.625	4912.618
368	40.75	4918.051
369	40.875	4912.618
370	41.0	4863.9164
371	41.0625	4815.528
372	41.1875	4794.124
373	41.3125	4836.9948
374	41.375	4794.124
375	41.5	4778.1076
377	41.5625	4746.1856
378	41.6875	4815.528
379	41.875	4788.782
380	41.9375	4746.1856
381	42.0	4709.115
382	42.0625	4688.0196
383	42.125	4703.837
384	42.25	4666.9824
385	42.3125	4619.865
386	42.375	4666.9824
387	42.5	4651.2396
388	42.5	4562.686
389	42.4375	4625.085
390	42.6875	4583.428
392	42.75	4583.428
393	42.8125	4541.683
394	42.9375	4567.867
395	43.0	4583.428
396	43.0	4552.3376
397	43.125	4500.4984
398	43.125	4521.061
399	43.1875	4500.4984
400	43.25	4531.3648
401	43.3125	4500.4984
402	43.375	4500.4984
403	43.4375	4474.8756
404	43.4375	4459.547
406	43.5	4485.1124
407	43.5625	4408.6808
408	43.625	4434.0684
409	43.6875	4459.547
410	43.75	4439.158
411	43.75	4373.2876
412	43.8125	4418.8248
413	43.875	4403.613
414	43.875	4403.613
415	43.9375	4378.3324
416	43.9375	4408.6808
417	44.0	4358.17
418	44.0	4338.067
420	44.0625	4378.3324
421	44.125	4308.016
422	44.125	4313.0148
423	44.1875	4378.3324
424	44.25	4338.067
425	44.25	4323.0252
426	44.3125	4353.1396
427	44.3125	4368.2436
428	44.375	4333.0512
429	44.375	4288.0504
430	44.4375	4323.0252
431	44.4375	4248.286
432	44.5	4218.612
434	44.5	4268.14
435	44.5625	4248.286
436	44.625	4288.0504
437	44.625	4258.2076
438	44.625	4253.248
439	44.6875	4213.678
440	44.75	4243.334
441	44.75	4189.057
442	44.8125	4213.678
443	44.8125	4288.0504
444	44.875	4218.612
445	44.875	4228.4884
446	44.875	4218.612
447	44.9375	4213.678
448	44.9375	4233.435
449	45.0	4179.233
450	45.0	4203.8204
452	45.0625	4179.233
453	45.0625	4193.9736
454	45.125	4179.233
455	45.1875	4193.9736
456	45.25	4198.8964
457	45.25	4174.3256
458	45.25	4169.424
459	45.3125	4203.8204
460	45.3125	4149.8432
461	45.3125	4125.4452
462	45.375	4144.9584
463	45.375	4164.524
464	45.4375	4125.4452
465	45.4375	4130.319
466	45.5	4159.626
467	45.5	4140.075
469	45.5	4149.8432
470	45.5	4101.1284
471	45.5625	4091.4284
472	45.625	4140.075
473	45.625	4072.0624
474	45.625	4101.1284
475	45.625	4130.319
476	45.6875	4130.319
477	45.6875	4091.4284
478	45.6875	4091.4284
479	45.75	4125.4452
480	45.75	4125.4452
481	45.75	4120.5736
482	45.75	4101.1284
483	45.8125	4047.929
485	45.8125	4091.4284
486	45.8125	4096.2772
487	45.8125	4023.8808
488	45.875	4120.5736
489	45.875	4091.4284
490	45.875	4081.73984
491	45.875	4009.4932
492	45.875	4052.7496
493	45.875	4076.90016
494	45.9375	4047.929
495	45.9375	4091.4284
496	45.9375	4014.2832
497	45.9375	4081.73984
498	45.9375	4057.572
499	45.9375	4047.929
500	46.0	4052.7496
502	46.0	4023.8808
503	46.0	3976.03
504	46.0	4043.114
505	46.0	3966.49784
506	46.0	3999.91468
507	46.0	4043.114
508	46.0	4062.4004
509	46.0625	4004.701
510	46.0625	4023.8808
511	46.0625	4009.4932
512	46.0625	4038.301
513	46.0625	4009.4932
514	46.0625	4023.8808
515	46.0625	4038.301
516	46.0625	4052.7496
518	46.0625	3937.9844
519	46.0625	4023.8808
520	46.0625	4014.2832
521	46.125	3961.738
522	46.125	3976.03
523	46.125	4023.8808
524	46.125	3985.5744
525	46.125	3980.7996
526	46.125	3999.91468
527	46.125	3956.9804
528	46.125	4004.701
529	46.125	4004.701
530	46.125	3985.5744
531	46.125	3980.7996
532	46.125	3923.769
534	46.125	3976.03
535	46.125	3999.91468
536	46.125	3985.5744
537	46.125	3942.7266
538	46.125	3980.7996
539	46.125	3985.5744
540	46.125	3985.5744
541	46.125	3971.2632
542	46.125	3976.03
543	46.125	3976.03
544	46.125	3956.9804
545	46.125	3971.2632
546	46.125	3937.9844
547	46.125	3985.5744
548	46.125	3980.7996
550	46.125	3937.9844
551	46.125	3980.7996
552	46.125	3937.9844
553	46.125	3942.7266
554	46.125	3947.47468
555	46.125	3980.7996
556	46.125	3980.7996
557	46.125	3900.1424
558	46.125	3956.9804
559	46.125	3976.03
560	46.125	3966.49784
561	46.125	4009.4932
562	46.125	3904.86132
563	46.125	3937.9844
565	46.125	3933.24
566	46.125	3900.1424
567	46.125	3942.7266
568	46.125	3980.7996
569	46.125	3976.03
570	46.125	3904.86132
571	46.125	3933.24
572	46.125	3937.9844
573	46.0625	3923.769
574	46.0625	3966.49784
575	46.0625	3937.9844
576	46.0625	3990.3512
577	46.0625	3961.738
579	46.0625	3966.49784
580	46.0625	3937.9844
581	46.0625	3928.50532
582	46.0625	3923.769
583	46.0625	3942.7266
584	46.0625	3947.47468
585	46.0625	3980.7996
586	46.0625	3947.47468
587	46.0625	3933.24
588	46.0625	3886.00416
589	46.0625	3956.9804
590	46.0	3976.03
591	46.0625	3919.038
592	46.0	3886.00416
594	46.0	3985.5744
595	46.0	3961.738
596	46.0	3942.7266
597	46.0	3947.47468
598	46.0	3971.2632
599	46.0	3947.47468
600	46.0	3923.769
601	46.0	3890.7136
602	46.0	3985.5744
603	46.0	3942.7266
604	46.0	3947.47468
605	46.0	3961.738
606	46.0	3904.86132
608	45.9375	3947.47468
609	45.9375	3937.9844
610	45.9375	3919.038
611	45.9375	3923.769
612	45.9375	3933.24
613	45.9375	3971.2632
614	45.9375	3956.9804
615	45.9375	3971.2632
616	45.9375	3923.769
617	45.875	3909.5824
618	45.875	3937.9844
619	45.875	3937.9844
620	45.875	3928.50532
622	45.875	3928.50532
623	45.875	3947.47468
624	45.875	3956.9804
625	45.875	3933.24
626	45.875	3956.9804
627	45.875	3909.5824
628	45.875	3909.5824
629	45.8125	3871.8952
630	45.8125	3928.50532
631	45.8125	3914.30932
632	45.8125	3966.49784
633	45.8125	3933.24
635	45.8125	3933.24
636	45.8125	3923.769
637	45.8125	3966.49784
638	45.8125	3947.47468
639	45.8125	3966.49784
640	45.75	3937.9844
641	45.75	3895.425
642	45.75	3947.47468
643	45.75	3928.50532
644	45.75	3928.50532
645	45.75	3995.13032
646	45.75	3947.47468
647	45.75	3947.47468
648	45.75	3961.738
650	45.75	3937.9844
651	45.6875	3971.2632
652	45.6875	3942.7266
653	45.6875	3937.9844
654	45.6875	3995.13032
655	45.6875	3956.9804
656	45.6875	3942.7266
657	45.6875	3947.47468
658	45.625	3928.50532
659	45.625	3895.425
660	45.625	3933.24
661	45.625	3995.13032
662	45.625	3895.425
663	45.625	3961.738
664	45.625	3933.24
665	45.625	3971.2632
667	45.625	3971.2632
668	45.625	3961.738
669	45.625	3909.5824
670	45.5625	3999.91468
671	45.5625	3900.1424
672	45.5625	3961.738
673	45.5625	3956.9804
674	45.5625	3933.24
675	45.5625	3956.9804
676	45.5625	3985.5744
677	45.5625	3990.3512
678	45.5625	3976.03
679	45.5	3966.49784
680	45.5	3904.86132
681	45.5	3923.769
682	45.5	3947.47468
684	45.5	3999.91468
685	45.5	3971.2632
686	45.5	3976.03
687	45.5	3956.9804
688	45.5	3966.49784
689	45.5	4009.4932
690	45.5	3971.2632
691	45.4375	3923.769
692	45.4375	3956.9804
693	45.4375	3980.7996
694	45.4375	3923.769
695	45.4375	4009.4932
696	45.375	3980.7996
697	45.25	4263.173
698	45.0625	4149.8432
699	44.9375	4154.7332
701	44.875	4135.1944
702	44.8125	4096.2772
703	44.75	4130.319
704	44.625	4169.424
705	44.5625	4120.5736
706	44.5	4101.1284
707	44.5	4174.3256
708	44.4375	4135.1944
709	44.375	4154.7332
710	44.3125	4164.524
711	44.25	4179.233
712	44.1875	4218.612
713	44.125	4233.435
714	44.125	4258.2076
715	44.0625	4283.068
716	44.0	4268.14
718	43.9375	4258.2076
719	43.8125	4278.0876
720	43.8125	4253.248
721	43.75	4278.0876
722	43.6875	4288.0504
723	43.625	4293.038
724	43.5625	4278.0876
725	43.5625	4298.0232
726	43.5	4323.0252
727	43.4375	4318.019
728	43.375	4318.019
729	43.3125	4283.068
730	43.3125	4348.111
731	43.25	4358.17
733	43.1875	4323.0252
734	43.125	4363.206
735	43.0625	4363.206
736	43.0	4388.4364
737	42.9375	4383.384
738	42.875	4408.6808
739	42.875	4418.8248
740	42.8125	4434.0684
741	42.75	4434.0684
742	42.6875	4363.206
743	42.625	4434.0684
744	42.625	4413.75
745	42.5625	4464.6532
746	42.5	4439.158
747	42.5	4485.1124
749	42.4375	4413.75
750	42.375	4490.2392
751	42.3125	4434.0684
752	42.25	4469.7616
753	42.25	4485.1124
754	42.125	4526.212
755	42.125	4474.8756
756	42.0625	4541.683
757	42.0625	4500.4984
758	42.0	4485.1124
759	41.9375	4515.916
760	41.9375	4526.212
761	41.875	4583.428
762	41.8125	4573.05
764	41.8125	4567.867
765	41.75	4578.2384
766	41.6875	4578.2384
767	41.625	4614.6476
768	41.625	4557.511
769	41.5625	4656.4816
770	41.5	4646.004
771	41.5	4651.2396
772	41.4375	4656.4816
773	41.375	4666.9824
774	41.375	4656.4816
775	41.3125	4614.6476
776	41.3125	4656.4816
777	41.25	4709.115
778	41.1875	4724.982
780	41.1875	4698.56
781	41.125	4703.837
782	41.0625	4661.729
783	41.0625	4735.5736
784	41.0	4762.131
785	40.9375	4751.4976
786	40.9375	4783.442
787	40.875	4740.879
788	40.875	4751.4976
789	40.8125	4778.1076
790	40.8125	4794.124
791	40.75	4794.124
792	40.75	4815.528
794	40.6875	4820.8852
795	40.625	4783.442
796	40.5625	4826.254
797	40.5625	4820.8852
798	40.5	4836.9948
799	40.5	4863.9164
800	40.4375	4890.9364
801	40.4375	4863.9164
802	40.375	4804.8164
803	40.375	4896.3508
804	40.3125	4853.1344
805	40.3125	4863.9164
806	40.25	4907.191
807	40.25	4912.618
809	40.1875	4880.1132
810	40.1875	4901.77
811	40.125	4880.1132
812	40.0625	4918.051
813	40.0625	4994.5084
814	40.0625	4961.6464
815	40.0	4994.5084
816	40.0	4989.019
817	39.9375	4999.998
818	39.9375	4994.5084
819	39.875	4923.4852
820	39.875	4994.5084
821	39.8125	4994.5084
823	39.8125	4999.998
824	39.75	5038.551
825	39.75	5010.9968
826	39.6875	5033.032
827	39.6875	5038.551
828	39.625	4983.541
829	39.625	5038.551
830	39.5625	5055.136
831	39.5625	5055.136
832	39.5625	5071.7524
833	39.5	5060.669
834	39.5	5082.8556
835	39.4375	5066.2076
837	39.4375	5099.533
838	39.375	5093.9728
839	39.375	5049.605
840	39.3125	5133.01
841	39.3125	5088.4088
842	39.25	5161.013
843	39.25	5099.533
844	39.25	5060.669
845	39.1875	5099.533
846	39.1875	5206.0424
847	39.125	5121.8316
848	39.125	5200.4004
850	39.125	5177.8688
851	39.0625	5161.013
852	39.0625	5183.496
853	39.0	5172.2476
854	39.0	5127.418
855	38.9375	5222.995
856	38.9375	5234.3192
857	38.9375	5211.6904
858	38.875	5234.3192
859	38.875	5245.663
860	38.875	5228.6568
861	38.8125	5217.34
862	38.8125	5200.4004
863	38.8125	5257.0216
864	38.75	5211.6904
865	38.75	5279.7868
867	38.75	5217.34
868	38.6875	5274.09
869	38.625	5308.338
870	38.625	5257.0216
871	38.625	5279.7868
872	38.5625	5325.522
873	38.5625	5279.7868
874	38.5	5337.002
875	38.5	5383.079
876	38.5	5274.09
877	38.5	5383.079
878	38.4375	5314.0616
879	38.4375	5400.433
880	38.4375	5217.34
881	38.375	5314.0616
882	38.3125	5319.791
883	38.1875	5331.259
885	38.1875	5314.0616
886	38.125	5279.7868
887	38.125	5348.492
888	38.125	5354.249
889	38.125	5388.863
890	38.0625	5360.0064
891	38.0625	5302.62
892	38.0625	5274.09
893	38.0625	5308.338
894	38.0625	5371.5356
895	38.0625	5371.5356
896	38.0625	5365.7704
897	38.0625	5302.62
898	38.0625	5348.492
899	38.125	5371.5356
901	38.125	5337.002
902	38.1875	5308.338
903	38.25	5337.002
904	38.3125	5360.0064
905	38.375	5279.7868
906	38.4375	5354.249
907	38.5	5365.7704
908	38.5625	5331.259
909	38.625	5331.259
910	38.6875	5325.522
911	38.75	5354.249
912	38.875	5308.338
913	38.9375	5314.0616
914	39.0	5314.0616
915	39.0625	5325.522
916	39.125	5342.7468
918	39.1875	5228.6568
919	39.3125	5302.62
920	39.375	5234.3192
921	39.5	5251.339
922	39.625	5274.09
923	39.6875	5314.0616
924	39.75	5228.6568
925	39.8125	5279.7868
926	39.875	5268.3944
927	39.9375	5234.3192
928	40.0625	5217.34
929	40.125	5268.3944
930	40.1875	5234.3192
931	40.25	5149.799
932	40.375	5206.0424
933	40.4375	5217.34
935	40.5	5200.4004
936	40.5625	5177.8688
937	40.6875	5217.34
938	40.75	5200.4004
939	40.8125	5155.4052
940	40.875	5161.013
941	41.0	5144.1976
942	41.0625	5155.4052
943	41.125	5088.4088
944	41.1875	5127.418
945	41.25	5099.533
946	41.3125	5121.8316
947	41.375	5121.8316
948	41.4375	5093.9728
949	41.5	5099.533
951	41.5625	5055.136
952	41.625	5093.9728
953	41.75	5088.4088
954	41.8125	5099.533
955	41.875	5010.9968
956	41.9375	5066.2076
957	42.0	5005.4948
958	42.0625	5082.8556
959	42.0625	5049.605
960	42.125	5027.5156
961	42.1875	5055.136
962	42.25	5038.551
963	42.3125	5049.605
964	42.375	4994.5084
966	42.4375	4994.5084
967	42.5	5010.9968
968	42.5	4999.998
969	42.625	5010.9968
970	42.625	4923.4852
971	42.6875	4994.5084
972	42.75	5010.9968
973	42.8125	4972.584
974	42.875	4967.1144
975	42.875	5022.005
976	42.9375	4923.4852
977	43.0	4967.1144
978	43.0	4945.268
979	43.0625	4967.1144
980	43.0625	4978.0596
982	43.125	4961.6464
983	43.1875	4961.6464
984	43.25	4923.4852
985	43.3125	4989.019
986	43.3125	4907.191
987	43.375	4918.051
988	43.375	4912.618
989	43.4375	4934.3716
990	43.4375	4863.9164
991	43.5	4896.3508
992	43.5	4853.1344
993	43.5625	4896.3508
994	43.5625	4880.1132
995	43.625	4890.9364
997	43.6875	4901.77
998	43.75	4896.3508
999	43.75	4869.3096
1000	43.75	4810.1716
1001	43.8125	4890.9364
1002	43.8125	4869.3096
1003	43.8125	4831.619
1004	43.875	4863.9164
1005	43.875	4874.713
1006	43.9375	4836.9948
1007	43.9375	4890.9364
1008	44.0	4847.75
1009	44.0	4836.9948
1011	44.0	4831.619
1012	44.0625	4874.713
1013	44.0625	4858.5244
1014	44.125	4810.1716
1015	44.125	4778.1076
1016	44.125	4826.254
1017	44.125	4820.8852
1018	44.1875	4826.254
1019	44.1875	4751.4976
1020	44.1875	4836.9948
1021	44.25	4820.8852
1022	44.25	4820.8852
1023	44.25	4788.782
1025	44.25	4746.1856
1026	44.3125	4794.124
1027	44.3125	4799.4672
1028	44.3125	4783.442
1029	44.3125	4772.7792
1030	44.3125	4794.124
1031	44.375	4735.5736
1032	44.375	4772.7792
1033	44.375	4783.442
1034	44.4375	4772.7792
1035	44.4375	4788.782
1036	44.4375	4751.4976
